specden
3
2.418884287180845E-005 ps-1 in (Eh/hbar)
4.5663352672E-6 cm-1 in (Eh/hbar)
0 0 0 0
0.100219 0.681727 0.968735 3.51405
0.200439 1.36017 1.93193 6.99976
0.300658 2.03211 2.88414 10.4292
0.400878 2.69438 3.82003 13.7753
0.501097 3.34396 4.73453 17.0122
0.601317 3.97802 5.62283 20.1156
0.701536 4.59389 6.48047 23.0633
0.801756 5.18918 7.3034 25.8353
0.901975 5.76173 8.08804 28.4141
1.00219 6.30968 8.83128 30.7849
1.10241 6.83148 9.53055 32.9359
1.20263 7.32589 10.1838 34.8584
1.30285 7.79201 10.7896 36.5465
1.40307 8.22923 11.347 37.9978
1.50329 8.63729 11.8557 39.2126
1.60351 9.01624 12.316 40.1943
1.70373 9.36641 12.7284 40.9491
1.80395 9.68842 13.0942 41.4858
1.90417 9.98312 13.4151 41.8155
2.00439 10.2516 13.6932 41.9513
2.10461 10.4952 13.9307 41.9085
2.20483 10.7153 14.1306 41.7033
2.30505 10.9135 14.2957 41.3535
2.40527 11.0915 14.4292 40.8776
2.50549 11.2509 14.5342 40.2943
2.60571 11.3937 14.6142 39.6228
2.70593 11.5215 14.6725 38.8818
2.80615 11.636 14.7124 38.0897
2.90636 11.7389 14.7369 37.264
3.00658 11.8318 14.7492 36.4213
3.1068 11.9161 14.7522 35.5768
3.20702 11.9932 14.7484 34.7445
3.30724 12.0642 14.7402 33.9367
3.40746 12.1302 14.7297 33.164
3.50768 12.1921 14.7188 32.4355
3.6079 12.2505 14.709 31.7583
3.70812 12.3061 14.7014 31.1381
3.80834 12.3593 14.6971 30.5786
3.90856 12.4102 14.6968 30.0823
4.00878 12.4592 14.7008 29.6499
4.109 12.5061 14.7092 29.281
4.20922 12.5509 14.7221 28.9739
4.30944 12.5934 14.7392 28.7259
4.40966 12.6334 14.76 28.5337
4.50988 12.6706 14.7841 28.393
4.6101 12.7045 14.8108 28.2993
4.71032 12.735 14.8393 28.2478
4.81053 12.7615 14.869 28.2333
4.91075 12.7839 14.899 28.2511
5.01097 12.8017 14.9287 28.2962
5.11119 12.8147 14.9574 28.3643
5.21141 12.8226 14.9843 28.4511
5.31163 12.8252 15.0089 28.5529
5.41185 12.8226 15.0307 28.6667
5.51207 12.8145 15.0494 28.7898
5.61229 12.801 15.0646 28.92
5.71251 12.7821 15.0762 29.0559
5.81273 12.758 15.084 29.1963
5.91295 12.729 15.0882 29.3406
6.01317 12.6951 15.0888 29.4886
6.11339 12.6567 15.086 29.6404
6.21361 12.6141 15.08 29.7964
6.31383 12.5676 15.0712 29.9571
6.41405 12.5177 15.0599 30.1231
6.51427 12.4648 15.0466 30.2952
6.61449 12.4092 15.0315 30.4739
6.7147 12.3514 15.0153 30.6598
6.81492 12.2917 14.9982 30.8531
6.91514 12.2307 14.9806 31.054
7.01536 12.1688 14.963 31.2624
7.11558 12.1062 14.9457 31.4779
7.2158 12.0436 14.9289 31.7
7.31602 11.9811 14.9131 31.9276
7.41624 11.9193 14.8982 32.1597
7.51646 11.8586 14.8847 32.3949
7.61668 11.7992 14.8725 32.6316
7.7169 11.7416 14.8618 32.8684
7.81712 11.6861 14.8528 33.1033
7.91734 11.6332 14.8453 33.3346
8.01756 11.5832 14.8395 33.5605
8.11778 11.5364 14.8353 33.7794
8.218 11.4933 14.8328 33.9897
8.31822 11.4542 14.8319 34.1899
8.41844 11.4196 14.8326 34.3788
8.51866 11.3898 14.8349 34.5554
8.61887 11.3651 14.8388 34.7189
8.71909 11.346 14.8444 34.8689
8.81931 11.3328 14.8515 35.0051
8.91953 11.3259 14.8603 35.1275
9.01975 11.3255 14.8708 35.2365
9.11997 11.332 14.883 35.3323
9.22019 11.3455 14.8971 35.4158
9.32041 11.3664 14.913 35.4876
9.42063 11.3948 14.9309 35.5488
9.52085 11.4306 14.9509 35.6003
9.62107 11.4741 14.973 35.6431
9.72129 11.5252 14.9974 35.6782
9.82151 11.5837 15.024 35.7067
9.92173 11.6496 15.0529 35.7293
10.0219 11.7225 15.0842 35.7469
10.1222 11.8021 15.1179 35.7601
10.2224 11.8882 15.1541 35.7693
10.3226 11.9802 15.1926 35.7749
10.4228 12.0776 15.2336 35.777
10.523 12.1799 15.277 35.7756
10.6233 12.2865 15.3227 35.7706
10.7235 12.3967 15.3706 35.7616
10.8237 12.5099 15.4208 35.7484
10.9239 12.6253 15.4731 35.7304
11.0241 12.7423 15.5275 35.7071
11.1244 12.8601 15.5839 35.6781
11.2246 12.978 15.6423 35.6429
11.3248 13.0954 15.7025 35.6011
11.425 13.2116 15.7646 35.5523
11.5252 13.326 15.8285 35.4963
11.6255 13.4381 15.8942 35.4332
11.7257 13.5474 15.9616 35.363
11.8259 13.6534 16.0307 35.286
11.9261 13.7557 16.1017 35.2026
12.0263 13.8541 16.1743 35.1136
12.1266 13.9483 16.2488 35.0197
12.2268 14.0382 16.325 34.922
12.327 14.1236 16.4031 34.8215
12.4272 14.2045 16.483 34.7194
12.5274 14.281 16.5647 34.6171
12.6277 14.3531 16.6483 34.5161
12.7279 14.421 16.7337 34.4176
12.8281 14.4849 16.8209 34.3232
12.9283 14.545 16.9098 34.2341
13.0285 14.6016 17.0003 34.1518
13.1288 14.6549 17.0924 34.0773
13.229 14.7054 17.186 34.0118
13.3292 14.7533 17.2809 33.9562
13.4294 14.7989 17.3769 33.9114
13.5296 14.8426 17.474 33.878
13.6298 14.8848 17.5719 33.8564
13.7301 14.9256 17.6705 33.847
13.8303 14.9656 17.7695 33.8499
13.9305 15.0049 17.8689 33.8651
14.0307 15.0439 17.9684 33.8925
14.1309 15.0827 18.068 33.9318
14.2312 15.1218 18.1674 33.9828
14.3314 15.1612 18.2667 34.0449
14.4316 15.2012 18.3657 34.1179
14.5318 15.2421 18.4644 34.201
14.632 15.2839 18.5628 34.294
14.7323 15.3269 18.6609 34.3962
14.8325 15.3711 18.7589 34.5071
14.9327 15.4168 18.8567 34.6264
15.0329 15.4641 18.9546 34.7535
15.1331 15.513 19.0527 34.888
15.2334 15.5637 19.1513 35.0296
15.3336 15.6163 19.2503 35.1779
15.4338 15.6709 19.3502 35.3325
15.534 15.7274 19.451 35.4929
15.6342 15.786 19.553 35.6589
15.7345 15.8468 19.6563 35.8299
15.8347 15.9097 19.7611 36.0054
15.9349 15.9747 19.8674 36.1848
16.0351 16.0419 19.9753 36.3674
16.1353 16.1112 20.0848 36.5524
16.2356 16.1825 20.1958 36.7388
16.3358 16.2558 20.3083 36.9257
16.436 16.3309 20.422 37.1118
16.5362 16.4077 20.5367 37.2959
16.6364 16.4859 20.6521 37.4766
16.7367 16.5655 20.7677 37.6524
16.8369 16.6462 20.8831 37.8218
16.9371 16.7276 20.9979 37.9832
17.0373 16.8095 21.1114 38.1349
17.1375 16.8915 21.2229 38.2756
17.2377 16.9734 21.332 38.4036
17.338 17.0546 21.4378 38.5176
17.4382 17.1349 21.5397 38.6163
17.5384 17.2137 21.637 38.6986
17.6386 17.2907 21.729 38.7637
17.7388 17.3654 21.8149 38.8109
17.8391 17.4373 21.894 38.8398
17.9393 17.506 21.9659 38.8504
18.0395 17.5711 22.0297 38.8428
18.1397 17.6321 22.085 38.8176
18.2399 17.6885 22.1312 38.7756
18.3402 17.74 22.1679 38.7178
18.4404 17.7862 22.1947 38.6457
18.5406 17.8267 22.2112 38.5609
18.6408 17.8611 22.2172 38.4653
18.741 17.8891 22.2125 38.3609
18.8413 17.9105 22.1969 38.2501
18.9415 17.925 22.1705 38.1351
19.0417 17.9324 22.1331 38.0183
19.1419 17.9325 22.0849 37.9023
19.2421 17.9253 22.0259 37.7895
19.3424 17.9106 21.9565 37.6822
19.4426 17.8884 21.8767 37.5827
19.5428 17.8587 21.7869 37.4931
19.643 17.8215 21.6875 37.4155
19.7432 17.777 21.5788 37.3515
19.8435 17.7253 21.4613 37.3028
19.9437 17.6665 21.3354 37.2705
20.0439 17.601 21.2017 37.2557
20.1441 17.5288 21.0607 37.2592
20.2443 17.4504 20.9131 37.2816
20.3446 17.3661 20.7595 37.323
20.4448 17.2762 20.6005 37.3836
20.545 17.1811 20.437 37.4631
20.6452 17.0813 20.2696 37.5612
20.7454 16.9772 20.0991 37.6773
20.8457 16.8693 19.9265 37.8107
20.9459 16.758 19.7525 37.9605
21.0461 16.6438 19.578 38.1258
21.1463 16.5273 19.404 38.3054
21.2465 16.4088 19.2313 38.4983
21.3467 16.289 19.061 38.7032
21.447 16.1683 18.8939 38.919
21.5472 16.0471 18.7309 39.1443
21.6474 15.9259 18.5731 39.378
21.7476 15.8051 18.4213 39.6188
21.8478 15.6851 18.2764 39.8653
21.9481 15.5663 18.1393 40.1163
22.0483 15.449 18.0107 40.3705
22.1485 15.3335 17.8914 40.6265
22.2487 15.22 17.7821 40.8832
22.3489 15.1087 17.6834 41.1391
22.4492 14.9999 17.5958 41.393
22.5494 14.8937 17.5197 41.6434
22.6496 14.7901 17.4556 41.8891
22.7498 14.6893 17.4037 42.1286
22.85 14.5912 17.3642 42.3606
22.9503 14.4959 17.3372 42.5838
23.0505 14.4035 17.3226 42.7967
23.1507 14.3137 17.3204 42.9982
23.2509 14.2268 17.3304 43.1869
23.3511 14.1425 17.3524 43.3618
23.4514 14.0609 17.3859 43.5217
23.5516 13.9819 17.4306 43.6657
23.6518 13.9056 17.486 43.7931
23.752 13.832 17.5516 43.9031
23.8522 13.7611 17.6268 43.9952
23.9525 13.6929 17.7112 44.0693
24.0527 13.6276 17.8039 44.1253
24.1529 13.5653 17.9045 44.1632
24.2531 13.5061 18.0122 44.1835
24.3533 13.4502 18.1265 44.1868
24.4536 13.3979 18.2466 44.1738
24.5538 13.3494 18.3719 44.1456
24.654 13.305 18.5019 44.1034
24.7542 13.2649 18.636 44.0484
24.8544 13.2294 18.7734 43.9822
24.9546 13.1988 18.9137 43.9063
25.0549 13.1735 19.0563 43.8224
25.1551 13.1537 19.2007 43.7321
25.2553 13.1396 19.3464 43.6372
25.3555 13.1316 19.4928 43.5391
25.4557 13.1297 19.6394 43.4396
25.556 13.1341 19.7857 43.3399
25.6562 13.1451 19.9313 43.2415
25.7564 13.1625 20.0756 43.1453
25.8566 13.1863 20.2181 43.0523
25.9568 13.2166 20.3583 42.9633
26.0571 13.2531 20.4958 42.8787
26.1573 13.2956 20.6299 42.7987
26.2575 13.3438 20.7601 42.7235
26.3577 13.3974 20.8859 42.6529
26.4579 13.456 21.0068 42.5865
26.5582 13.519 21.1222 42.5239
26.6584 13.586 21.2316 42.4643
26.7586 13.6564 21.3344 42.4069
26.8588 13.7296 21.4301 42.351
26.959 13.8049 21.5181 42.2956
27.0593 13.8816 21.5981 42.2397
27.1595 13.9591 21.6694 42.1826
27.2597 14.0368 21.7317 42.1232
27.3599 14.1139 21.7845 42.0609
27.4601 14.1898 21.8275 41.995
27.5604 14.264 21.8604 41.925
27.6606 14.3357 21.8828 41.8506
27.7608 14.4045 21.8946 41.7714
27.861 14.4699 21.8955 41.6875
27.9612 14.5314 21.8854 41.599
28.0615 14.5887 21.8642 41.5062
28.1617 14.6414 21.8319 41.4096
28.2619 14.6893 21.7885 41.3096
28.3621 14.7321 21.734 41.2071
28.4623 14.7698 21.6686 41.1027
28.5626 14.8022 21.5924 40.9973
28.6628 14.8292 21.5056 40.8919
28.763 14.851 21.4084 40.7872
28.8632 14.8675 21.301 40.6843
28.9634 14.8789 21.1837 40.5838
29.0636 14.8853 21.0568 40.4867
29.1639 14.8868 20.9206 40.3935
29.2641 14.8837 20.7754 40.3048
29.3643 14.8761 20.6217 40.2212
29.4645 14.8642 20.4597 40.1429
29.5647 14.8482 20.2897 40.0701
29.665 14.8284 20.1123 40.003
29.7652 14.8049 19.9277 39.9414
29.8654 14.778 19.7364 39.8852
29.9656 14.7478 19.5387 39.834
30.0658 14.7145 19.3351 39.7877
30.1661 14.6783 19.1259 39.7455
30.2663 14.6394 18.9117 39.7072
30.3665 14.5978 18.6927 39.672
30.4667 14.5536 18.4696 39.6394
30.5669 14.5071 18.2426 39.6089
30.6672 14.4583 18.0123 39.5797
30.7674 14.4072 17.7792 39.5513
30.8676 14.354 17.5435 39.5232
30.9678 14.2987 17.306 39.4949
31.068 14.2415 17.0669 39.4658
31.1683 14.1823 16.8267 39.4354
31.2685 14.1212 16.586 39.4035
31.3687 14.0584 16.3451 39.3695
31.4689 13.9938 16.1044 39.3332
31.5691 13.9276 15.8645 39.2942
31.6694 13.8599 15.6256 39.2522
31.7696 13.7907 15.3883 39.2068
31.8698 13.7201 15.1527 39.1578
31.97 13.6482 14.9193 39.1049
32.0702 13.5752 14.6884 39.0476
32.1705 13.5012 14.4603 38.9857
32.2707 13.4262 14.2352 38.9187
32.3709 13.3504 14.0134 38.8462
32.4711 13.2738 13.795 38.7679
32.5713 13.1968 13.5802 38.6834
32.6715 13.1192 13.3693 38.5921
32.7718 13.0414 13.1624 38.4938
32.872 12.9633 12.9595 38.3881
32.9722 12.8851 12.7609 38.2747
33.0724 12.8068 12.5666 38.1533
33.1726 12.7287 12.3766 38.0237
33.2729 12.6508 12.1912 37.886
33.3731 12.5731 12.0105 37.74
33.4733 12.4958 11.8344 37.5861
33.5735 12.4189 11.6631 37.4246
33.6737 12.3424 11.4967 37.2558
33.774 12.2664 11.3353 37.0804
33.8742 12.1909 11.1791 36.8991
33.9744 12.116 11.0281 36.7129
34.0746 12.0417 10.8824 36.5227
34.1748 11.9679 10.7422 36.3298
34.2751 11.8946 10.6075 36.1354
34.3753 11.8219 10.4786 35.9408
34.4755 11.7496 10.3554 35.7475
34.5757 11.6778 10.2381 35.5569
34.6759 11.6063 10.1267 35.3703
34.7762 11.5352 10.0212 35.1893
34.8764 11.4643 9.92179 35.0153
34.9766 11.3935 9.82835 34.8493
35.0768 11.3229 9.74086 34.6928
35.177 11.2522 9.65927 34.5466
35.2773 11.1814 9.58349 34.4117
35.3775 11.1104 9.51341 34.2887
35.4777 11.039 9.44886 34.1783
35.5779 10.9673 9.38968 34.0806
35.6781 10.8951 9.33566 33.996
35.7784 10.8223 9.28659 33.9243
35.8786 10.7488 9.24223 33.8652
35.9788 10.6747 9.20233 33.8184
36.079 10.5998 9.16664 33.7833
36.1792 10.5242 9.13491 33.7592
36.2795 10.4478 9.10689 33.7452
36.3797 10.3707 9.08234 33.7404
36.4799 10.2929 9.06105 33.7438
36.5801 10.2145 9.04282 33.7545
36.6803 10.1357 9.02749 33.7712
36.7805 10.0565 9.01491 33.7931
36.8808 9.97716 9.00499 33.819
36.981 9.89793 8.99764 33.848
37.0812 9.81905 8.99284 33.8792
37.1814 9.74082 8.9906 33.9118
37.2816 9.66358 8.99093 33.945
37.3819 9.58769 8.99393 33.9782
37.4821 9.51356 8.99967 34.0109
37.5823 9.44162 9.00829 34.0426
37.6825 9.37234 9.01993 34.073
37.7827 9.30621 9.03475 34.1017
37.883 9.24374 9.05292 34.1287
37.9832 9.18546 9.0746 34.1537
38.0834 9.1319 9.09996 34.1767
38.1836 9.08361 9.12918 34.1977
38.2838 9.04115 9.16239 34.2166
38.3841 9.00504 9.19973 34.2335
38.4843 8.97583 9.2413 34.2484
38.5845 8.95403 9.2872 34.2613
38.6847 8.94013 9.33747 34.2722
38.7849 8.93461 9.39215 34.2812
38.8852 8.9379 9.45123 34.2882
38.9854 8.95039 9.51469 34.2933
39.0856 8.97243 9.58247 34.2964
39.1858 9.00433 9.65448 34.2976
39.286 9.04633 9.73061 34.2968
39.3863 9.09862 9.81075 34.2942
39.4865 9.16134 9.89475 34.2896
39.5867 9.23453 9.98245 34.2833
39.6869 9.31819 10.0737 34.2754
39.7871 9.41226 10.1683 34.266
39.8874 9.51657 10.2661 34.2554
39.9876 9.63093 10.3669 34.2439
40.0878 9.75502 10.4705 34.2319
40.188 9.88849 10.5768 34.2196
40.2882 10.0309 10.6857 34.2077
40.3884 10.1818 10.7969 34.1965
40.4887 10.3405 10.9103 34.1867
40.5889 10.5065 11.0257 34.1787
40.6891 10.679 11.1431 34.1731
40.7893 10.8574 11.2622 34.1704
40.8895 11.0408 11.3829 34.1711
40.9898 11.2284 11.505 34.1757
41.09 11.4194 11.6284 34.1845
41.1902 11.6128 11.7528 34.1979
41.2904 11.8078 11.8781 34.2159
41.3906 12.0035 12.0039 34.2388
41.4909 12.1989 12.1302 34.2666
41.5911 12.3932 12.2565 34.299
41.6913 12.5854 12.3826 34.3359
41.7915 12.7748 12.5081 34.3769
41.8917 12.9604 12.6327 34.4215
41.992 13.1416 12.756 34.4692
42.0922 13.3175 12.8776 34.5193
42.1924 13.4876 12.997 34.5712
42.2926 13.6512 13.1139 34.6242
42.3928 13.8079 13.2277 34.6774
42.4931 13.9571 13.3381 34.7303
42.5933 14.0985 13.4445 34.782
42.6935 14.2318 13.5465 34.832
42.7937 14.3569 13.6438 34.8797
42.8939 14.4735 13.7358 34.9247
42.9942 14.5817 13.8223 34.9666
43.0944 14.6815 13.9028 35.0053
43.1946 14.7731 13.9771 35.0406
43.2948 14.8565 14.0448 35.0728
43.395 14.9321 14.1059 35.1019
43.4953 15.0001 14.16 35.1285
43.5955 15.0609 14.2071 35.1529
43.6957 15.1149 14.2471 35.1757
43.7959 15.1625 14.2799 35.1977
43.8961 15.2042 14.3057 35.2196
43.9964 15.2403 14.3244 35.2421
44.0966 15.2714 14.3362 35.2662
44.1968 15.2979 14.3412 35.2925
44.297 15.3201 14.3396 35.3218
44.3972 15.3386 14.3317 35.3547
44.4974 15.3536 14.3176 35.392
44.5977 15.3656 14.2978 35.4339
44.6979 15.3747 14.2724 35.4807
44.7981 15.3813 14.2418 35.5328
44.8983 15.3856 14.2063 35.59
44.9985 15.3878 14.1662 35.6522
45.0988 15.3879 14.1218 35.719
45.199 15.386 14.0736 35.79
45.2992 15.3823 14.0218 35.8646
45.3994 15.3768 13.9667 35.942
45.4996 15.3694 13.9088 36.0214
45.5999 15.3601 13.8482 36.1019
45.7001 15.3489 13.7854 36.1824
45.8003 15.3358 13.7206 36.2621
45.9005 15.3207 13.6541 36.34
46.0007 15.3037 13.5863 36.415
46.101 15.2846 13.5175 36.4865
46.2012 15.2636 13.4479 36.5535
46.3014 15.2406 13.3778 36.6156
46.4016 15.2159 13.3076 36.672
46.5018 15.1894 13.2374 36.7226
46.6021 15.1614 13.1676 36.767
46.7023 15.132 13.0984 36.8052
46.8025 15.1015 13.0301 36.8374
46.9027 15.0702 12.9629 36.8637
47.0029 15.0384 12.8971 36.8847
47.1032 15.0064 12.8328 36.9007
47.2034 14.9746 12.7702 36.9123
47.3036 14.9433 12.7095 36.9203
47.4038 14.9131 12.6509 36.9254
47.504 14.8842 12.5945 36.9283
47.6043 14.8572 12.5403 36.9297
47.7045 14.8323 12.4885 36.9303
47.8047 14.81 12.4392 36.9308
47.9049 14.7906 12.3923 36.9318
48.0051 14.7743 12.3479 36.9336
48.1053 14.7615 12.306 36.9366
48.2056 14.7524 12.2665 36.941
48.3058 14.747 12.2295 36.9469
48.406 14.7455 12.1948 36.9543
48.5062 14.7479 12.1624 36.963
48.6064 14.7542 12.1323 36.9727
48.7067 14.7642 12.1044 36.983
48.8069 14.7777 12.0788 36.9934
48.9071 14.7945 12.0552 37.0034
49.0073 14.8143 12.0339 37.0124
49.1075 14.8367 12.0147 37.0197
49.2078 14.8613 11.9978 37.0247
49.308 14.8875 11.9831 37.0269
49.4082 14.9149 11.9708 37.0256
49.5084 14.9429 11.961 37.0203
49.6086 14.971 11.9538 37.0106
49.7089 14.9984 11.9493 36.9961
49.8091 15.0247 11.9478 36.9767
49.9093 15.0492 11.9495 36.9521
50.0095 15.0713 11.9545 36.9224
50.1097 15.0904 11.963 36.8875
50.21 15.1059 11.9753 36.8477
50.3102 15.1174 11.9915 36.8031
50.4104 15.1242 12.0118 36.7542
50.5106 15.1261 12.0364 36.7011
50.6108 15.1225 12.0652 36.6444
50.7111 15.1131 12.0985 36.5844
50.8113 15.0977 12.1361 36.5216
50.9115 15.0759 12.1782 36.4565
51.0117 15.0476 12.2244 36.3893
51.1119 15.0127 12.2748 36.3204
51.2122 14.971 12.3291 36.2501
51.3124 14.9228 12.3869 36.1786
51.4126 14.8678 12.448 36.1061
51.5128 14.8064 12.5118 36.0327
51.613 14.7386 12.5781 35.9584
51.7132 14.6646 12.6461 35.8831
51.8135 14.5847 12.7154 35.8068
51.9137 14.4992 12.7853 35.7293
52.0139 14.4083 12.8552 35.6504
52.1141 14.3126 12.9244 35.5701
52.2143 14.2123 12.9923 35.4881
52.3146 14.1077 13.0582 35.4042
52.4148 13.9995 13.1214 35.3184
52.515 13.8878 13.1812 35.2305
52.6152 13.7732 13.237 35.1406
52.7154 13.6561 13.2882 35.0487
52.8157 13.5369 13.3343 34.9549
52.9159 13.4159 13.3748 34.8595
53.0161 13.2936 13.4091 34.7628
53.1163 13.1703 13.4368 34.6651
53.2165 13.0463 13.4577 34.5669
53.3168 12.9219 13.4714 34.4687
53.417 12.7975 13.4778 34.3711
53.5172 12.6732 13.4765 34.2747
53.6174 12.5493 13.4676 34.1803
53.7176 12.426 13.451 34.0884
53.8179 12.3034 13.4267 33.9998
53.9181 12.1816 13.3947 33.9151
54.0183 12.0607 13.3552 33.8348
54.1185 11.9408 13.3083 33.7597
54.2187 11.8219 13.2542 33.6902
54.319 11.704 13.193 33.6268
54.4192 11.5871 13.1251 33.5698
54.5194 11.4712 13.0507 33.5195
54.6196 11.3562 12.9701 33.4762
54.7198 11.242 12.8837 33.44
54.8201 11.1287 12.7916 33.4109
54.9203 11.0161 12.6944 33.389
55.0205 10.9042 12.5923 33.3743
55.1207 10.7928 12.4857 33.3665
55.2209 10.6821 12.3749 33.3657
55.3212 10.5719 12.2604 33.3716
55.4214 10.4621 12.1424 33.3841
55.5216 10.3529 12.0215 33.403
55.6218 10.2442 11.8979 33.4283
55.722 10.1361 11.7721 33.4598
55.8222 10.0285 11.6445 33.4975
55.9225 9.9216 11.5154 33.5413
56.0227 9.81545 11.3852 33.5912
56.1229 9.71015 11.2544 33.6474
56.2231 9.60581 11.1233 33.7098
56.3233 9.50257 10.9923 33.7786
56.4236 9.40055 10.8618 33.854
56.5238 9.29992 10.7321 33.936
56.624 9.20079 10.6036 34.0249
56.7242 9.10333 10.4766 34.1207
56.8244 9.00766 10.3514 34.2235
56.9247 8.91392 10.2283 34.3334
57.0249 8.82221 10.1075 34.4505
57.1251 8.73265 9.9894 34.5745
57.2253 8.64532 9.87409 34.7055
57.3255 8.56029 9.76179 34.8431
57.4258 8.47759 9.65266 34.9872
57.526 8.39725 9.54684 35.1373
57.6262 8.31928 9.44443 35.293
57.7264 8.24366 9.34552 35.4538
57.8266 8.17033 9.25016 35.6191
57.9269 8.09925 9.1584 35.7883
58.0271 8.03033 9.07027 35.9608
58.1273 7.96348 8.98578 36.136
58.2275 7.89859 8.90492 36.3132
58.3277 7.83556 8.8277 36.4918
58.428 7.77426 8.7541 36.6712
58.5282 7.71458 8.68412 36.8511
58.6284 7.65638 8.61775 37.0309
58.7286 7.59956 8.555 37.2104
58.8288 7.54401 8.49585 37.3893
58.9291 7.48964 8.44034 37.5675
59.0293 7.43635 8.38847 37.7452
59.1295 7.38408 8.34028 37.9224
59.2297 7.33278 8.2958 38.0993
59.3299 7.28242 8.25507 38.2764
59.4301 7.23298 8.21812 38.4541
59.5304 7.18446 8.18501 38.6328
59.6306 7.13689 8.15577 38.8131
59.7308 7.09031 8.13041 38.9956
59.831 7.04477 8.10897 39.181
59.9312 7.00033 8.09144 39.3697
60.0315 6.95708 8.0778 39.5623
60.1317 6.91511 8.06801 39.7592
60.2319 6.8745 8.06199 39.9609
60.3321 6.83537 8.05966 40.1675
60.4323 6.79779 8.06087 40.3792
60.5326 6.76189 8.06548 40.5959
60.6328 6.72775 8.07329 40.8176
60.733 6.69545 8.08407 41.0438
60.8332 6.66508 8.09758 41.2741
60.9334 6.63672 8.11353 41.5079
61.0337 6.61041 8.13162 41.7444
61.1339 6.58622 8.15154 41.9827
61.2341 6.56418 8.17295 42.2219
61.3343 6.5443 8.19551 42.4608
61.4345 6.5266 8.21887 42.6984
61.5348 6.51109 8.2427 42.9334
61.635 6.49775 8.26668 43.1646
61.7352 6.48654 8.29048 43.391
61.8354 6.47745 8.31382 43.6112
61.9356 6.47043 8.33643 43.8242
62.0359 6.46542 8.35808 44.029
62.1361 6.46237 8.37858 44.2247
62.2363 6.46121 8.39776 44.4104
62.3365 6.46187 8.41551 44.5853
62.4367 6.46427 8.43175 44.7489
62.537 6.46834 8.44644 44.9007
62.6372 6.47399 8.45958 45.0402
62.7374 6.48113 8.4712 45.1672
62.8376 6.48968 8.48139 45.2814
62.9378 6.49952 8.49024 45.3827
63.0381 6.51057 8.49788 45.471
